#Messung im Nullfeld, gekühlte, ohne Magnetisierung
#T(K)        U(V)
79,133	0,488
79,128	0,485
79,127	0,480
79,124	0,480
79,122	0,479
79,126	0,477
79,133	0,478
79,148	0,478
79,154	0,478
79,147	0,482
79,133	0,482
79,117	0,484
79,108	0,487
79,108	0,486
79,103	0,487
79,103	0,489
79,110	0,489
79,115	0,488
79,116	0,485
79,111	0,485
79,106	0,483
79,105	0,486
79,106	0,491
79,108	0,489
79,109	0,496
79,110	0,497
79,114	0,482
79,120	0,478
79,123	0,482
79,116	0,483
79,118	0,486
79,121	0,487
79,116	0,484
79,107	0,484
79,101	0,484
79,102	0,483
79,106	0,479
79,120	0,479
79,122	0,483
79,117	0,485
79,115	0,484
79,117	0,483
79,117	0,485
79,111	0,483
79,107	0,481
79,111	0,481
79,123	0,477
79,140	0,478
79,162	0,481
79,195	0,482
79,235	0,486
79,282	0,486
79,343	0,485
79,423	0,486
79,515	0,487
79,610	0,491
79,714	0,492
79,819	0,494
79,923	0,497
80,026	0,499
80,127	0,499
80,228	0,497
80,325	0,494
80,423	0,489
80,522	0,490
80,620	0,492
80,722	0,493
80,820	0,493
80,920	0,494
81,021	0,495
81,117	0,494
81,220	0,495
81,320	0,495
81,420	0,495
81,520	0,494
81,620	0,496
81,721	0,498
81,820	0,499
81,920	0,499
82,019	0,500
82,118	0,500
82,217	0,500
82,315	0,502
82,414	0,505
82,511	0,506
82,610	0,506
82,706	0,502
82,806	0,498
82,905	0,497
83,003	0,500
83,100	0,501
83,196	0,506
83,294	0,508
83,392	0,510
83,487	0,512
83,582	0,513
83,677	0,515
83,771	0,518
83,900	0,516
83,998	0,506
84,092	0,502
84,189	0,495
84,281	0,493
84,341	0,494
84,467	0,494
84,561	0,497
84,651	0,496
84,747	0,496
84,838	0,497
84,932	0,497
85,037	0,499
85,179	0,499
85,369	0,501
85,611	0,505
85,891	0,507
86,205	0,507
86,552	0,507
86,914	0,509
87,296	0,505
87,712	0,506
88,142	0,508
88,587	0,509
89,043	0,510
89,510	0,509
89,981	0,510
90,454	0,507
90,943	0,502
91,421	0,503
91,907	0,505
92,397	0,505
92,732	0,508
93,390	0,509
93,888	0,511
94,382	0,508
94,872	0,508
95,195	0,507
95,855	0,506
96,345	0,508
96,834	0,511
97,327	0,507
97,816	0,504
98,313	0,506
98,819	0,507
99,307	0,507
99,625	0,509
100,288	0,511
100,777	0,515
101,262	0,518
101,752	0,522
102,235	0,520
102,724	0,517
103,209	0,514
103,521	0,517
104,006	0,519
104,666	0,519
105,144	0,519
105,629	0,519
106,111	0,514
106,422	0,515
107,063	0,516
107,546	0,517
108,024	0,517
108,499	0,518
108,981	0,516
109,454	0,519
109,761	0,528
110,397	0,530
110,885	0,533
111,191	0,529
111,828	0,526
112,300	0,519
112,771	0,521
113,235	0,523
113,712	0,522
114,182	0,520
114,644	0,521
115,107	0,521
115,568	0,524
115,872	0,529
116,327	0,528
116,951	0,528
117,402	0,527
117,851	0,523
118,148	0,516
118,751	0,517
119,045	0,517
119,644	0,517
120,090	0,514
120,546	0,512
120,982	0,514
121,426	0,514
121,864	0,513
122,303	0,512
122,582	0,513
123,168	0,513
123,446	0,516
123,872	0,516
124,451	0,517
124,726	0,512
125,147	0,512
125,572	0,514
125,990	0,515
126,414	0,515
126,829	0,513
127,387	0,511
127,809	0,509
128,236	0,508
128,503	0,509
129,052	0,510
129,459	0,510
129,866	0,509
130,125	0,509
130,523	0,511
130,927	0,513
131,459	0,513
131,851	0,514
132,240	0,514
132,634	0,515
133,037	0,514
133,292	0,514
133,817	0,515
134,198	0,518
134,578	0,519
134,956	0,522
135,331	0,522
135,705	0,521
135,947	0,522
136,318	0,525
136,818	0,526
137,192	0,531
137,558	0,533
137,923	0,538
138,286	0,542
138,648	0,541
139,015	0,533
139,381	0,532
139,744	0,532
140,107	0,533
140,337	0,528
140,695	0,524
141,053	0,523
141,533	0,524
141,888	0,524
142,243	0,526
142,597	0,526
142,944	0,526
143,292	0,524
143,637	0,522
143,865	0,524
144,331	0,524
144,677	0,526
145,024	0,531
145,258	0,535
145,597	0,534
146,055	0,531
146,397	0,529
146,733	0,528
147,067	0,524
147,400	0,522
147,734	0,523
148,069	0,526
148,404	0,526
148,736	0,526
149,066	0,529
149,393	0,531
149,718	0,532
150,042	0,535
150,374	0,535
150,699	0,536
151,026	0,536
151,346	0,535
151,664	0,535
151,985	0,537
152,191	0,533
152,513	0,532
152,832	0,532
153,146	0,534
153,574	0,534
153,886	0,534
154,197	0,534
154,509	0,534
154,818	0,533
155,127	0,533
155,326	0,530
155,743	0,530
156,047	0,530
156,352	0,530
156,658	0,528
156,961	0,526
157,262	0,522
157,563	0,521
157,863	0,522
158,163	0,523
158,358	0,519
158,759	0,520
159,054	0,522
159,352	0,523
159,645	0,526
159,938	0,526
160,230	0,526
160,521	0,527
160,813	0,530
161,102	0,530
161,390	0,529
161,575	0,529
161,963	0,529
162,250	0,529
162,533	0,529
162,815	0,530
163,096	0,532
163,376	0,533
163,654	0,533
163,835	0,531
164,208	0,529
164,483	0,529
164,761	0,528
165,036	0,527
165,317	0,526
165,588	0,525
165,764	0,527
166,129	0,527
166,397	0,526
166,664	0,525
166,836	0,524
167,194	0,524
167,365	0,519
167,720	0,519
167,981	0,518
168,244	0,516
168,504	0,515
168,764	0,515
169,022	0,517
169,281	0,518
169,538	0,519
169,793	0,519
169,958	0,520
170,303	0,521
170,563	0,520
170,816	0,521
170,978	0,530
171,316	0,532
171,565	0,536
171,813	0,540
172,061	0,543
172,307	0,535
172,467	0,523
172,796	0,524
172,955	0,528
173,201	0,529
173,530	0,529
173,775	0,532
173,930	0,541
174,254	0,542
174,493	0,543
174,731	0,544
174,971	0,546
175,207	0,553
175,443	0,547
175,598	0,544
175,915	0,544
176,147	0,544
176,382	0,542
176,613	0,542
176,766	0,542
177,076	0,544
177,227	0,545
177,536	0,546
177,685	0,543
177,990	0,542
178,219	0,544
178,365	0,544
178,672	0,543
178,896	0,539
179,042	0,540
179,343	0,541
179,565	0,543
179,789	0,542
180,011	0,542
180,232	0,546
180,451	0,551
180,670	0,552
180,812	0,549
181,107	0,549
181,248	0,552
181,540	0,552
181,756	0,549
181,972	0,550
182,186	0,547
182,400	0,546
182,616	0,547
182,830	0,548
183,045	0,551
183,183	0,556
183,468	0,557
183,679	0,564
183,887	0,565
184,095	0,566
184,230	0,567
184,510	0,565
184,718	0,559
184,923	0,552
185,132	0,548
185,336	0,546
185,540	0,547
185,744	0,548
185,947	0,546
186,149	0,543
186,350	0,546
186,554	0,547
186,685	0,547
186,955	0,548
187,154	0,549
187,353	0,549
187,481	0,548
187,750	0,548
187,949	0,546
188,147	0,549
188,274	0,550
188,539	0,549
188,733	0,551
188,927	0,552
189,121	0,549
189,314	0,537
189,438	0,529
189,629	0,525
189,821	0,526
190,079	0,528
190,208	0,537
190,463	0,533
190,586	0,527
190,840	0,527
191,026	0,530
191,147	0,535
191,334	0,542
191,586	0,543
191,773	0,542
191,958	0,545
192,141	0,547
192,326	0,545
192,445	0,542
192,692	0,540
192,873	0,538
193,055	0,538
193,236	0,542
193,416	0,541
193,598	0,543
193,777	0,554
193,955	0,555
194,134	0,557
194,311	0,558
194,488	0,563
194,602	0,564
194,842	0,564
195,017	0,556
195,131	0,550
195,306	0,549
195,542	0,549
195,716	0,548
195,890	0,550
196,004	0,553
196,237	0,551
196,411	0,549
196,582	0,542
196,695	0,532
196,926	0,531
197,097	0,533
197,268	0,532
197,438	0,537
197,609	0,541
197,779	0,542
197,947	0,543
198,116	0,539
198,225	0,543
198,393	0,545
198,618	0,545
198,784	0,546
198,950	0,546
199,117	0,546
199,280	0,546
199,445	0,544
199,612	0,543
199,718	0,542
199,883	0,543
200,047	0,542
200,272	0,542
200,378	0,541
200,596	0,541
200,758	0,543
200,918	0,544
201,078	0,545
201,183	0,550
201,400	0,551
201,559	0,556
201,718	0,558
201,876	0,559
202,035	0,562
202,136	0,562
202,349	0,564
202,505	0,565
202,662	0,565
202,763	0,550
202,973	0,549
203,129	0,547
203,284	0,544
203,385	0,539
203,594	0,540
203,749	0,541
203,903	0,546
204,056	0,550
204,210	0,555
204,311	0,556
204,518	0,555
204,671	0,553
204,824	0,552
204,976	0,552
205,127	0,543
205,277	0,541
205,429	0,539
205,529	0,538
205,733	0,537
205,884	0,540
206,035	0,545
206,186	0,543
206,337	0,539
206,488	0,537
206,636	0,537
206,784	0,536
206,932	0,535
207,030	0,539
207,179	0,541
207,377	0,541
207,522	0,540
207,669	0,536
207,817	0,535
207,963	0,536
208,107	0,537
208,254	0,539
208,348	0,540
208,544	0,540
208,687	0,545
208,784	0,537
208,973	0,536
209,116	0,537
209,259	0,537
209,405	0,538
209,550	0,535
209,693	0,534
209,834	0,536
209,928	0,545
210,069	0,546
210,260	0,547
210,401	0,548
210,541	0,545
210,681	0,539
210,774	0,538
210,915	0,535
211,054	0,536
211,241	0,537
211,380	0,538
211,519	0,543
211,656	0,541
211,747	0,537
211,885	0,536
212,072	0,532
212,209	0,533
212,345	0,533
212,432	0,542
212,616	0,543
212,752	0,544
212,887	0,544
213,022	0,545
213,158	0,544
213,292	0,546
213,379	0,550
213,559	0,551
213,692	0,551
213,827	0,550
213,959	0,551
214,092	0,548
214,179	0,543
214,358	0,542
214,444	0,539
214,622	0,541
214,753	0,543
214,884	0,542
215,013	0,544
215,142	0,544
215,271	0,544
215,400	0,543
215,486	0,545
215,661	0,546
215,789	0,543
215,916	0,543
216,044	0,546
216,173	0,552
216,301	0,553
216,430	0,554
216,558	0,556
216,684	0,559
216,813	0,558
216,940	0,559
217,065	0,560
217,191	0,559
217,273	0,555
217,441	0,552
217,522	0,546
217,690	0,546
217,814	0,547
217,938	0,549
218,064	0,551
218,189	0,552
218,311	0,546
218,435	0,544
218,515	0,544
218,681	0,543
218,804	0,542
218,927	0,542
219,050	0,539
219,172	0,536
219,293	0,535
219,415	0,535
219,536	0,533
219,658	0,532
219,780	0,534
219,901	0,534
220,020	0,535
220,143	0,536
220,264	0,540
220,385	0,541
220,505	0,539
220,584	0,544
220,744	0,543
220,865	0,542
220,984	0,543
221,062	0,542
221,222	0,542
221,342	0,541
221,460	0,550
221,577	0,551
221,695	0,548
221,772	0,547
221,929	0,545
222,046	0,543
222,164	0,542
222,282	0,542
222,397	0,544
222,515	0,545
222,590	0,539
222,706	0,536
222,862	0,535
222,977	0,536
223,092	0,540
223,207	0,538
223,322	0,539
223,437	0,538
223,551	0,534
223,665	0,536
223,779	0,537
223,893	0,536
224,008	0,536
224,122	0,536
224,195	0,532
224,347	0,532
224,458	0,529
224,570	0,527
224,681	0,526
224,792	0,528
224,903	0,527
224,975	0,529
225,085	0,529
225,234	0,529
225,344	0,528
225,454	0,530
225,564	0,520
225,673	0,520
225,743	0,523
225,891	0,526
225,998	0,533
226,107	0,538
226,215	0,541
226,323	0,545
226,429	0,551
226,537	0,555
226,644	0,556
226,751	0,557
226,858	0,554
226,966	0,550
227,036	0,552
227,178	0,553
227,283	0,551
227,390	0,536
227,458	0,531
227,601	0,531
227,708	0,531
227,812	0,533
227,879	0,548
228,021	0,548
228,125	0,546
228,228	0,543
228,295	0,537
228,437	0,538
228,540	0,536
228,643	0,535
228,710	0,534
228,850	0,533
228,952	0,533
229,055	0,537
229,156	0,538
229,258	0,537
229,360	0,536
229,462	0,537
229,565	0,536
229,630	0,540
229,767	0,541
229,833	0,532
229,968	0,531
230,070	0,530
230,172	0,530
230,273	0,530
230,374	0,530
230,474	0,529
230,538	0,530
230,673	0,529
230,738	0,531
230,871	0,532
230,970	0,534
231,070	0,534
231,170	0,533
231,270	0,528
231,368	0,524
231,467	0,525
231,530	0,523
231,664	0,525
231,761	0,526
231,859	0,523
231,956	0,523
232,053	0,531
232,151	0,534
232,247	0,535
232,346	0,536
232,443	0,539
232,505	0,539
232,634	0,538
232,731	0,536
232,826	0,535
232,924	0,532
233,020	0,531
233,116	0,529
233,210	0,526
233,272	0,528
233,400	0,528
233,496	0,528
233,591	0,529
233,686	0,532
233,780	0,534
233,875	0,533
233,969	0,533
234,031	0,519
234,157	0,520
234,251	0,522
234,345	0,523
234,439	0,523
234,500	0,523
234,626	0,522
234,687	0,520
234,811	0,519
234,872	0,515
234,998	0,515
235,058	0,516
235,183	0,516
235,275	0,516
235,367	0,515
235,458	0,518
235,550	0,521
235,643	0,518
235,734	0,516
235,825	0,511
235,918	0,511
236,011	0,515
236,102	0,515
236,192	0,517
236,285	0,516
236,374	0,517
236,466	0,518
236,556	0,517
236,646	0,516
236,737	0,516
236,795	0,517
236,917	0,515
237,006	0,514
237,096	0,516
237,186	0,519
237,277	0,521
237,367	0,521
237,425	0,520
237,545	0,520
237,633	0,519
237,721	0,518
237,812	0,512
237,899	0,508
237,958	0,508
238,076	0,509
238,164	0,511
238,253	0,515
238,341	0,515
238,429	0,516
238,516	0,515
238,604	0,513
238,691	0,513
238,777	0,512
238,866	0,512
238,953	0,511
239,039	0,511
239,126	0,514
239,212	0,519
239,298	0,516
239,384	0,515
239,439	0,500
239,555	0,496
239,641	0,493
239,729	0,493
239,783	0,492
239,871	0,490
239,985	0,489
240,071	0,489
240,155	0,485
240,241	0,486
240,326	0,485
240,410	0,485
240,465	0,483
240,579	0,483
240,664	0,479
240,748	0,477
240,832	0,480
240,918	0,484
241,001	0,488
241,084	0,489
241,168	0,491
241,222	0,484
241,335	0,484
241,390	0,484
241,501	0,485
241,586	0,490
241,670	0,495
241,724	0,501
241,835	0,504
241,889	0,502
242,000	0,502
242,082	0,504
242,136	0,506
242,218	0,502
242,329	0,500
242,412	0,495
242,493	0,493
242,575	0,489
242,657	0,485
242,740	0,483
242,793	0,038
242,904	0,039
242,985	0,041
243,065	0,046
243,146	0,043
243,227	0,041
243,307	0,041
243,388	0,043
243,468	0,044
243,548	0,045
243,630	0,046
243,708	0,048
243,789	0,047
243,871	0,045
243,950	0,050
244,030	0,051
244,109	0,050
244,189	0,051
244,268	0,054
244,348	0,052
244,427	0,053
244,507	0,051
244,586	0,042
244,665	0,038
244,744	0,040
244,823	0,041
244,901	0,041
244,980	0,039
245,060	0,041
245,138	0,041
245,216	0,044
245,294	0,050
245,372	0,050
245,451	0,045
245,529	0,041
245,606	0,037
245,685	0,031
245,761	0,028
245,838	0,028
245,916	0,030
245,993	0,029
246,070	0,029
246,146	0,027
246,225	0,025
246,300	0,025
246,378	0,027
246,454	0,029
246,531	0,031
246,607	0,034
246,683	0,035
246,760	0,037
246,837	0,038
246,914	0,036
246,989	0,036
247,065	0,037
247,141	0,037
247,217	0,039
247,293	0,039
247,368	0,039
247,443	0,039
247,518	0,037
247,593	0,032
247,668	0,031
247,744	0,032
247,819	0,032
247,893	0,035
247,968	0,034
248,042	0,036
248,116	0,037
248,192	0,035
248,266	0,036
248,340	0,039
248,414	0,040
248,488	0,036
248,562	0,035
248,635	0,036
248,708	0,040
248,782	0,042
248,855	0,042
248,929	0,042
249,002	0,043
249,076	0,043
249,149	0,041
249,221	0,037
249,294	0,038
249,368	0,042
249,440	0,036
249,511	0,036
249,584	0,032
249,656	0,031
249,731	0,030
249,801	0,028
249,872	0,028
249,944	0,032
250,017	0,032
